TITLE	ACcitrico
DATA TYPE	INFRARED SPECTRUM
ORIGIN	JASCO
OWNER	
DATE	24/11/05
TIME	11:57:49
SPECTROMETER/DATA SYSTEM	
LOCALE	3082
RESOLUTION	
DELTAX	0,964233
XUNITS	1/CM
YUNITS	TRANSMITTANCE
FIRSTX	  399,1927
LASTX	 4000,6047
NPOINTS	    3736
FIRSTY	    83,31934
MAXY	   103,34169
MINY	    69,06387
XYDATA
399,1927	83,3193
400,1569	84,8944
401,1211	86,7886
402,0854	88,5663
403,0496	90,0238
404,0138	91,1174
404,9781	91,8691
405,9423	92,3002
406,9065	92,3957
407,8708	92,1087
408,8350	91,4109
409,7992	90,3698
410,7635	89,1997
411,7277	88,2134
412,6919	87,6645
413,6562	87,6071
414,6204	87,8918
415,5846	88,257
416,5489	88,4113
417,5131	88,1086
418,4773	87,3229
419,4416	86,4178
420,4058	85,8374
421,3700	85,6314
422,3343	85,6093
423,2985	85,6723
424,2627	85,8724
425,2270	86,3086
426,1912	86,9978
427,1554	87,8147
428,1197	88,5417
429,0839	88,9763
430,0481	89,0149
431,0124	88,6788
431,9766	88,0915
432,9408	87,4308
433,9051	86,8817
434,8693	86,5978
435,8335	86,657
436,7978	87,0254
437,7620	87,5677
438,7262	88,1152
439,6905	88,5434
440,6547	88,8149
441,6189	88,9728
442,5832	89,0918
443,5474	89,2073
444,5116	89,279
445,4759	89,2293
446,4401	89,0179
447,4043	88,6728
448,3686	88,2635
449,3328	87,8535
450,2970	87,4709
451,2613	87,1106
452,2255	86,7598
453,1897	86,4212
454,1540	86,1131
455,1182	85,8522
456,0824	85,6321
457,0467	85,417
458,0109	85,1598
458,9751	84,8407
459,9394	84,4839
460,9036	84,1318
461,8678	83,8122
462,8321	83,5271
463,7963	83,2563
464,7605	82,9645
465,7248	82,6136
466,6890	82,1782
467,6532	81,6557
468,6175	81,0633
469,5817	80,4313
470,5459	79,8007
471,5102	79,2241
472,4744	78,753
473,4386	78,4068
474,4029	78,1504
475,3671	77,9096
476,3313	77,6105
477,2956	77,2149
478,2598	76,7363
479,2240	76,2348
480,1883	75,7886
481,1525	75,4579
482,1167	75,2598
483,0810	75,1669
484,0452	75,127
485,0094	75,0904
485,9737	75,0304
486,9379	74,9468
487,9021	74,8569
488,8664	74,7843
489,8306	74,7466
490,7948	74,7411
491,7591	74,7369
492,7233	74,6859
493,6875	74,5531
494,6518	74,3443
495,6160	74,107
496,5802	73,9132
497,5445	73,8458
498,5087	73,9957
499,4729	74,4554
500,4372	75,2847
501,4014	76,4468
502,3656	77,751
503,3299	78,8709
504,2941	79,4783
505,2583	79,4474
506,2226	78,9811
507,1868	78,5216
508,1510	78,4873
509,1153	79,05
510,0795	80,0993
511,0437	81,36
512,0080	82,5472
512,9722	83,4788
513,9365	84,1109
514,9007	84,5043
515,8649	84,7617
516,8292	84,9756
517,7934	85,2048
518,7576	85,4718
519,7219	85,7672
520,6861	86,0596
521,6503	86,3105
522,6146	86,4933
523,5788	86,6093
524,5430	86,6948
525,5073	86,8043
526,4715	86,9703
527,4357	87,1698
528,4000	87,3341
529,3642	87,3913
530,3284	87,2996
531,2927	87,0538
532,2569	86,6724
533,2211	86,1788
534,1854	85,5896
535,1496	84,9114
536,1138	84,1475
537,0781	83,3057
538,0423	82,4033
539,0065	81,4673
539,9708	80,5326
540,9350	79,6391
541,8992	78,8281
542,8635	78,1361
543,8277	77,5893
544,7919	77,2014
545,7562	76,98
546,7204	76,9382
547,6846	77,104
548,6489	77,5151
549,6131	78,1987
550,5773	79,1462
551,5416	80,3003
552,5058	81,5642
553,4700	82,8293
554,4343	84,0066
555,3985	85,0486
556,3627	85,9504
557,3270	86,7336
558,2912	87,4243
559,2554	88,039
560,2197	88,5829
561,1839	89,0562
562,1481	89,4623
563,1124	89,811
564,0766	90,1179
565,0408	90,4009
566,0051	90,674
566,9693	90,9404
567,9335	91,1851
568,8978	91,3769
569,8620	91,482
570,8262	91,485
571,7905	91,4002
572,7547	91,2668
573,7189	91,1302
574,6832	91,0194
575,6474	90,9332
576,6116	90,8437
577,5759	90,7176
578,5401	90,5372
579,5043	90,3062
580,4686	90,0354
581,4328	89,7256
582,3970	89,3613
583,3613	88,9218
584,3255	88,3994
585,2897	87,8068
586,2540	87,1649
587,2182	86,4787
588,1824	85,72
589,1467	84,8294
590,1109	83,742
591,0751	82,4273
592,0394	80,9232
593,0036	79,3386
593,9678	77,8204
594,9321	76,514
595,8963	75,5486
596,8605	75,042
597,8248	75,0971
598,7890	75,7731
599,7532	77,0457
600,7175	78,7932
601,6817	80,8294
602,6459	82,9607
603,6102	85,0286
604,5744	86,9211
605,5386	88,5662
606,5029	89,9261
607,4671	90,9967
608,4313	91,8053
609,3956	92,4013
610,3598	92,8395
611,3240	93,163
612,2883	93,3947
613,2525	93,5389
614,2167	93,5926
615,1810	93,558
616,1452	93,4504
617,1094	93,2966
618,0737	93,1234
619,0379	92,9446
620,0021	92,7565
620,9664	92,5449
621,9306	92,2971
622,8948	92,0102
623,8591	91,6905
624,8233	91,3455
625,7875	90,9752
626,7518	90,5687
627,7160	90,1107
628,6802	89,5897
629,6445	89,0025
630,6087	88,3535
631,5729	87,65
632,5372	86,9005
633,5014	86,1158
634,4656	85,3128
635,4299	84,5177
636,3941	83,7695
637,3583	83,123
638,3226	82,6487
639,2868	82,4263
640,2510	82,5253
641,2153	82,9792
642,1795	83,765
643,1437	84,801
644,1080	85,9672
645,0722	87,1419
646,0364	88,2334
647,0007	89,1926
647,9649	90,0024
648,9291	90,6587
649,8934	91,1586
650,8576	91,5043
651,8218	91,7112
652,7861	91,8108
653,7503	91,8408
654,7145	91,8335
655,6788	91,8075
656,6430	91,7665
657,6072	91,7037
658,5715	91,6075
659,5357	91,4697
660,4999	91,2954
661,4642	91,1075
662,4284	90,9373
663,3926	90,806
664,3569	90,7111
665,3211	90,619
666,2853	90,4597
667,2496	90,142
668,2138	89,643
669,1780	89,0986
670,1423	88,6719
671,1065	88,3797
672,0707	88,1423
673,0350	87,8804
673,9992	87,5491
674,9634	87,1421
675,9277	86,6857
676,8919	86,2169
677,8561	85,7575
678,8204	85,3071
679,7846	84,8608
680,7488	84,429
681,7131	84,0407
682,6773	83,7298
683,6415	83,5183
684,6058	83,4092
685,5700	83,3914
686,5342	83,4474
687,4985	83,5587
688,4627	83,7072
689,4269	83,8762
690,3912	84,0487
691,3554	84,2067
692,3196	84,3335
693,2839	84,4206
694,2481	84,479
695,2123	84,549
696,1766	84,7006
697,1408	85,018
698,1050	85,5701
699,0693	86,3804
700,0335	87,4101
700,9977	88,5639
701,9620	89,7153
702,9262	90,7416
703,8904	91,5557
704,8547	92,1231
705,8189	92,4583
706,7831	92,6048
707,7474	92,6109
708,7116	92,5153
709,6758	92,3443
710,6401	92,117
711,6043	91,8507
712,5685	91,5606
713,5328	91,2579
714,4970	90,9479
715,4612	90,6331
716,4255	90,3177
717,3897	90,0093
718,3539	89,716
719,3182	89,4399
720,2824	89,1728
721,2466	88,9003
722,2109	88,6104
723,1751	88,3026
724,1393	87,9877
725,1036	87,6827
726,0678	87,402
727,0320	87,1513
727,9963	86,9247
728,9605	86,707
729,9247	86,4775
730,8890	86,2179
731,8532	85,9194
732,8174	85,5872
733,7817	85,2398
734,7459	84,9
735,7101	84,5821
736,6744	84,283
737,6386	83,9834
738,6028	83,6601
739,5671	83,3022
740,5313	82,9197
741,4955	82,5388
742,4598	82,1857
743,4240	81,8705
744,3882	81,5816
745,3525	81,2943
746,3167	80,986
747,2809	80,6484
748,2452	80,2885
749,2094	79,919
750,1736	79,5472
751,1379	79,1697
752,1021	78,7773
753,0663	78,3656
754,0306	77,9439
754,9948	77,5347
755,9590	77,1644
756,9233	76,85
757,8875	76,5895
758,8517	76,3631
759,8160	76,1433
760,7802	75,9087
761,7444	75,653
762,7087	75,3866
763,6729	75,1294
764,6371	74,9022
765,6014	74,7191
766,5656	74,586
767,5298	74,5014
768,4941	74,4597
769,4583	74,4543
770,4225	74,4799
771,3868	74,5342
772,3510	74,6159
773,3152	74,7194
774,2795	74,8288
775,2437	74,9154
776,2079	74,9463
777,1722	74,904
778,1364	74,8093
779,1006	74,7352
780,0649	74,7992
781,0291	75,1323
781,9933	75,8335
782,9576	76,9293
783,9218	78,3549
784,8860	79,9681
785,8503	81,592
786,8145	83,067
787,7787	84,2911
788,7430	85,2338
789,7072	85,923
790,6714	86,4189
791,6357	86,7874
792,5999	87,083
793,5641	87,3436
794,5284	87,5918
795,4926	87,8393
796,4568	88,0898
797,4211	88,3411
798,3853	88,5881
799,3495	88,8256
800,3138	89,0524
801,2780	89,272
802,2422	89,4924
803,2065	89,7215
804,1707	89,9629
805,1349	90,2115
806,0992	90,4525
807,0634	90,6625
808,0276	90,8129
808,9919	90,8714
809,9561	90,8019
810,9203	90,5654
811,8846	90,1254
812,8488	89,465
813,8130	88,6104
814,7773	87,6498
815,7415	86,7332
816,7057	86,0428
817,6700	85,7403
818,6342	85,913
819,5984	86,5422
820,5627	87,5103
821,5269	88,6421
822,4911	89,7614
823,4554	90,7396
824,4196	91,5188
825,3839	92,1062
826,3481	92,5481
827,3123	92,8995
828,2766	93,2007
829,2408	93,4692
830,2050	93,7032
831,1693	93,893
832,1335	94,032
833,0977	94,1224
834,0620	94,1747
835,0262	94,2026
835,9904	94,2179
836,9547	94,2283
837,9189	94,2376
838,8831	94,2476
839,8474	94,2592
840,8116	94,2718
841,7758	94,2834
842,7401	94,2912
843,7043	94,2925
844,6685	94,2855
845,6328	94,2679
846,5970	94,2363
847,5612	94,1854
848,5255	94,1113
849,4897	94,0158
850,4539	93,909
851,4182	93,8073
852,3824	93,7261
853,3466	93,6719
854,3109	93,6377
855,2751	93,6057
856,2393	93,5558
857,2036	93,4753
858,1678	93,3642
859,1320	93,2333
860,0963	93,0972
861,0605	92,965
862,0247	92,835
862,9890	92,6945
863,9532	92,5247
864,9174	92,3087
865,8817	92,0377
866,8459	91,7133
867,8101	91,345
868,7744	90,9438
869,7386	90,5171
870,7028	90,0682
871,6671	89,5997
872,6313	89,1194
873,5955	88,6418
874,5598	88,183
875,5240	87,7529
876,4882	87,3503
877,4525	86,9692
878,4167	86,6143
879,3809	86,3173
880,3452	86,1408
881,3094	86,164
882,2736	86,4527
883,2379	87,0297
884,2021	87,8582
885,1663	88,8494
886,1306	89,8875
887,0948	90,863
888,0590	91,698
889,0233	92,3558
889,9875	92,8352
890,9517	93,1542
891,9160	93,3356
892,8802	93,3973
893,8444	93,3507
894,8087	93,2
895,7729	92,9401
896,7371	92,553
897,7014	92,0096
898,6656	91,2863
899,6298	90,3942
900,5941	89,4093
901,5583	88,4819
902,5225	87,8072
903,4868	87,5625
904,4510	87,8354
905,4152	88,5804
906,3795	89,6303
907,3437	90,7564
908,3079	91,7503
909,2722	92,4858
910,2364	92,9369
911,2006	93,1512
912,1649	93,2042
913,1291	93,1589
914,0933	93,0497
915,0576	92,887
916,0218	92,672
916,9860	92,4084
917,9503	92,1058
918,9145	91,7759
919,8787	91,4274
920,8430	91,0632
921,8072	90,6821
922,7714	90,2826
923,7357	89,8655
924,6999	89,4323
925,6641	88,9795
926,6284	88,4947
927,5926	87,9594
928,5568	87,3622
929,5211	86,7158
930,4853	86,0683
931,4495	85,4958
932,4138	85,0775
933,3780	84,8631
934,3422	84,8499
935,3065	84,983
936,2707	85,1783
937,2349	85,3554
938,1992	85,4651
939,1634	85,4986
940,1276	85,4797
941,0919	85,4478
942,0561	85,4425
943,0203	85,4952
943,9846	85,6268
944,9488	85,8482
945,9130	86,1606
946,8773	86,5556
947,8415	87,0153
948,8057	87,5158
949,7700	88,0311
950,7342	88,5379
951,6984	89,0186
952,6627	89,4617
953,6269	89,8605
954,5911	90,2125
955,5554	90,5176
956,5196	90,7787
957,4838	91,0005
958,4481	91,1883
959,4123	91,3457
960,3765	91,4729
961,3408	91,5676
962,3050	91,6271
963,2692	91,6513
964,2335	91,6454
965,1977	91,6193
966,1619	91,5856
967,1262	91,5562
968,0904	91,541
969,0546	91,547
970,0189	91,5791
970,9831	91,6402
971,9473	91,7316
972,9116	91,8526
973,8758	92,0014
974,8400	92,1758
975,8043	92,3735
976,7685	92,5916
977,7327	92,8255
978,6970	93,0687
979,6612	93,3144
980,6254	93,5572
981,5897	93,7945
982,5539	94,0249
983,5181	94,2457
984,4824	94,4507
985,4466	94,6327
986,4108	94,7877
987,3751	94,9185
988,3393	95,0348
989,3035	95,1479
990,2678	95,2643
991,2320	95,3824
992,1962	95,495
993,1605	95,5941
994,1247	95,6762
995,0889	95,7421
996,0532	95,7947
997,0174	95,8355
997,9816	95,8639
998,9459	95,8797
999,9101	95,8851
1000,8743	95,8849
1001,8386	95,8843
1002,8028	95,8861
1003,7670	95,8899
1004,7313	95,8927
1005,6955	95,8899
1006,6597	95,8771
1007,6240	95,8503
1008,5882	95,8086
1009,5524	95,755
1010,5167	95,6973
1011,4809	95,6454
1012,4451	95,6061
1013,4094	95,5798
1014,3736	95,5591
1015,3378	95,5328
1016,3021	95,4913
1017,2663	95,43
1018,2305	95,3493
1019,1948	95,2529
1020,1590	95,1452
1021,1232	95,0308
1022,0875	94,914
1023,0517	94,7989
1024,0160	94,6879
1024,9802	94,5807
1025,9445	94,4747
1026,9087	94,3662
1027,8729	94,2521
1028,8372	94,1301
1029,8014	93,998
1030,7656	93,8528
1031,7299	93,6911
1032,6941	93,5106
1033,6583	93,3112
1034,6226	93,0952
1035,5868	92,8658
1036,5510	92,6239
1037,5153	92,3669
1038,4795	92,0888
1039,4437	91,782
1040,4080	91,4392
1041,3722	91,0558
1042,3364	90,6309
1043,3007	90,1678
1044,2649	89,6754
1045,2291	89,1686
1046,1934	88,668
1047,1576	88,1982
1048,1218	87,7841
1049,0861	87,4467
1050,0503	87,1994
1051,0145	87,0479
1051,9788	86,992
1052,9430	87,0293
1053,9072	87,1576
1054,8715	87,374
1055,8357	87,6728
1056,7999	88,0413
1057,7642	88,459
1058,7284	88,8993
1059,6926	89,3351
1060,6569	89,7436
1061,6211	90,1099
1062,5853	90,427
1063,5496	90,6928
1064,5138	90,9069
1065,4780	91,0674
1066,4423	91,1698
1067,4065	91,2073
1068,3707	91,1734
1069,3350	91,063
1070,2992	90,8738
1071,2634	90,6047
1072,2277	90,2526
1073,1919	89,8096
1074,1561	89,2605
1075,1204	88,5885
1076,0846	87,7879
1077,0488	86,8836
1078,0131	85,9472
1078,9773	85,099
1079,9415	84,4861
1080,9058	84,2403
1081,8700	84,4303
1082,8342	85,0321
1083,7985	85,9311
1084,7627	86,9595
1085,7269	87,9491
1086,6912	88,7771
1087,6554	89,3869
1088,6196	89,7799
1089,5839	89,9912
1090,5481	90,0644
1091,5123	90,0366
1092,4766	89,935
1093,4408	89,7794
1094,4050	89,5844
1095,3693	89,3602
1096,3335	89,113
1097,2977	88,8477
1098,2620	88,5705
1099,2262	88,2902
1100,1904	88,0144
1101,1547	87,7449
1102,1189	87,474
1103,0831	87,1883
1104,0474	86,8751
1105,0116	86,5299
1105,9758	86,1582
1106,9401	85,7716
1107,9043	85,3804
1108,8685	84,9893
1109,8328	84,5972
1110,7970	84,1996
1111,7612	83,7933
1112,7255	83,3758
1113,6897	82,9448
1114,6539	82,496
1115,6182	82,0245
1116,5824	81,5277
1117,5466	81,0084
1118,5109	80,4753
1119,4751	79,9397
1120,4393	79,4101
1121,4036	78,8886
1122,3678	78,3695
1123,3320	77,8419
1124,2963	77,2933
1125,2605	76,7126
1126,2247	76,0921
1127,1890	75,428
1128,1532	74,721
1129,1174	73,9775
1130,0817	73,2105
1131,0459	72,4396
1132,0101	71,6894
1132,9744	70,9869
1133,9386	70,3591
1134,9028	69,8311
1135,8671	69,4259
1136,8313	69,1641
1137,7955	69,0639
1138,7598	69,1399
1139,7240	69,4011
1140,6882	69,8481
1141,6525	70,4715
1142,6167	71,2527
1143,5809	72,167
1144,5452	73,1878
1145,5094	74,288
1146,4736	75,4393
1147,4379	76,6092
1148,4021	77,7583
1149,3663	78,8422
1150,3306	79,8166
1151,2948	80,6446
1152,2590	81,3035
1153,2233	81,786
1154,1875	82,0981
1155,1517	82,252
1156,1160	82,2602
1157,0802	82,1312
1158,0444	81,8696
1159,0087	81,4787
1159,9729	80,9638
1160,9371	80,3348
1161,9014	79,6073
1162,8656	78,8017
1163,8298	77,9429
1164,7941	77,0608
1165,7583	76,1918
1166,7225	75,3791
1167,6868	74,6717
1168,6510	74,1189
1169,6152	73,7633
1170,5795	73,6326
1171,5437	73,7338
1172,5079	74,0515
1173,4722	74,5508
1174,4364	75,1853
1175,4006	75,9082
1176,3649	76,6824
1177,3291	77,4862
1178,2933	78,3118
1179,2576	79,1587
1180,2218	80,0263
1181,1860	80,9071
1182,1503	81,7853
1183,1145	82,638
1184,0787	83,4382
1185,0430	84,1579
1186,0072	84,7697
1186,9714	85,2493
1187,9357	85,5772
1188,8999	85,7413
1189,8641	85,7389
1190,8284	85,5794
1191,7926	85,2861
1192,7568	84,8971
1193,7211	84,4637
1194,6853	84,0446
1195,6495	83,6981
1196,6138	83,4724
1197,5780	83,3946
1198,5422	83,4623
1199,5065	83,6327
1200,4707	83,8582
1201,4349	84,0607
1202,3992	84,1872
1203,3634	84,2228
1204,3276	84,1963
1205,2919	84,1639
1206,2561	84,1769
1207,2203	84,249
1208,1846	84,3417
1209,1488	84,3762
1210,1130	84,2677
1211,0773	83,9672
1212,0415	83,4908
1213,0057	82,923
1213,9700	82,3917
1214,9342	82,0281
1215,8984	81,9283
1216,8627	82,1307
1217,8269	82,6132
1218,7911	83,3059
1219,7554	84,1149
1220,7196	84,9466
1221,6838	85,7247
1222,6481	86,397
1223,6123	86,933
1224,5765	87,3186
1225,5408	87,5519
1226,5050	87,6414
1227,4692	87,6036
1228,4335	87,4597
1229,3977	87,2315
1230,3619	86,939
1231,3262	86,5997
1232,2904	86,2301
1233,2546	85,848
1234,2189	85,4729
1235,1831	85,1251
1236,1473	84,8236
1237,1116	84,585
1238,0758	84,4229
1239,0400	84,3499
1240,0043	84,3788
1240,9685	84,5226
1241,9327	84,7924
1242,8970	85,1944
1243,8612	85,7281
1244,8254	86,3865
1245,7897	87,1574
1246,7539	88,0246
1247,7181	88,9668
1248,6824	89,9574
1249,6466	90,9655
1250,6108	91,9593
1251,5751	92,9099
1252,5393	93,7945
1253,5035	94,5975
1254,4678	95,311
1255,4320	95,9347
1256,3962	96,4751
1257,3605	96,9436
1258,3247	97,351
1259,2889	97,7037
1260,2532	98,0011
1261,2174	98,2394
1262,1816	98,4182
1263,1459	98,5453
1264,1101	98,6368
1265,0743	98,7104
1266,0386	98,7779
1267,0028	98,8397
1267,9670	98,8866
1268,9313	98,9055
1269,8955	98,8872
1270,8597	98,8302
1271,8240	98,7398
1272,7882	98,6227
1273,7524	98,4829
1274,7167	98,3201
1275,6809	98,1309
1276,6451	97,9114
1277,6094	97,6587
1278,5736	97,3723
1279,5378	97,0551
1280,5021	96,7138
1281,4663	96,3576
1282,4305	95,994
1283,3948	95,6229
1284,3590	95,2328
1285,3232	94,803
1286,2875	94,3135
1287,2517	93,7606
1288,2159	93,1708
1289,1802	92,6018
1290,1444	92,1286
1291,1086	91,8191
1292,0729	91,7126
1293,0371	91,8087
1294,0013	92,0686
1294,9656	92,425
1295,9298	92,7996
1296,8940	93,1219
1297,8583	93,3439
1298,8225	93,4437
1299,7867	93,4213
1300,7510	93,29
1301,7152	93,071
1302,6794	92,7914
1303,6437	92,4855
1304,6079	92,1942
1305,5721	91,9617
1306,5364	91,8253
1307,5006	91,8058
1308,4648	91,9006
1309,4291	92,0843
1310,3933	92,3153
1311,3575	92,5437
1312,3218	92,7206
1313,2860	92,8081
1314,2502	92,7882
1315,2145	92,6651
1316,1787	92,4625
1317,1429	92,2205
1318,1072	91,9898
1319,0714	91,8224
1320,0356	91,7554
1320,9999	91,7973
1321,9641	91,9281
1322,9283	92,1108
1323,8926	92,3037
1324,8568	92,4688
1325,8210	92,5755
1326,7853	92,6026
1327,7495	92,5381
1328,7137	92,3785
1329,6780	92,1285
1330,6422	91,8024
1331,6064	91,4255
1332,5707	91,0303
1333,5349	90,6481
1334,4991	90,3006
1335,4634	89,9974
1336,4276	89,7432
1337,3918	89,5478
1338,3561	89,43
1339,3203	89,4075
1340,2845	89,4757
1341,2488	89,6022
1342,2130	89,7449
1343,1772	89,8701
1344,1415	89,9556
1345,1057	89,9863
1346,0699	89,9499
1347,0342	89,8385
1347,9984	89,6509
1348,9626	89,3948
1349,9269	89,0833
1350,8911	88,7312
1351,8553	88,3519
1352,8196	87,9628
1353,7838	87,5917
1354,7480	87,278
1355,7123	87,0608
1356,6765	86,9611
1357,6407	86,9773
1358,6050	87,0992
1359,5692	87,3275
1360,5334	87,6797
1361,4977	88,1693
1362,4619	88,7695
1363,4261	89,4074
1364,3904	90,014
1365,3546	90,5668
1366,3188	91,0803
1367,2831	91,5721
1368,2473	92,0412
1369,2115	92,4682
1370,1758	92,8303
1371,1400	93,1152
1372,1042	93,3227
1373,0685	93,4564
1374,0327	93,5178
1374,9969	93,5072
1375,9612	93,4239
1376,9254	93,2565
1377,8896	92,9763
1378,8539	92,5456
1379,8181	91,9443
1380,7823	91,1952
1381,7466	90,3615
1382,7108	89,5102
1383,6750	88,6784
1384,6393	87,8769
1385,6035	87,1314
1386,5677	86,5234
1387,5320	86,1653
1388,4962	86,1068
1389,4604	86,2931
1390,4247	86,6279
1391,3889	87,0416
1392,3531	87,5061
1393,3174	88,0211
1394,2816	88,5998
1395,2458	89,262
1396,2101	90,0251
1397,1743	90,8822
1398,1385	91,7811
1399,1028	92,6336
1400,0670	93,3543
1401,0313	93,8944
1401,9955	94,2438
1402,9597	94,4119
1403,9240	94,4103
1404,8882	94,2534
1405,8524	93,9678
1406,8167	93,5898
1407,7809	93,1454
1408,7451	92,6372
1409,7094	92,0574
1410,6736	91,418
1411,6378	90,7694
1412,6021	90,182
1413,5663	89,7023
1414,5305	89,3275
1415,4948	89,017
1416,4590	88,7206
1417,4232	88,4114
1418,3875	88,1134
1419,3517	87,8817
1420,3159	87,7375
1421,2802	87,6504
1422,2444	87,5824
1423,2086	87,5182
1424,1729	87,4649
1425,1371	87,4408
1426,1013	87,468
1427,0656	87,5754
1428,0298	87,8016
1428,9940	88,1819
1429,9583	88,7146
1430,9225	89,344
1431,8867	89,9955
1432,8510	90,6321
1433,8152	91,2737
1434,7794	91,9713
1435,7437	92,7462
1436,7079	93,5299
1437,6721	94,1982
1438,6364	94,6964
1439,6006	95,069
1440,5648	95,3859
1441,5291	95,6905
1442,4933	95,9958
1443,4575	96,2983
1444,4218	96,595
1445,3860	96,8909
1446,3502	97,1966
1447,3145	97,5161
1448,2787	97,8377
1449,2429	98,1399
1450,2072	98,4076
1451,1714	98,6387
1452,1356	98,8382
1453,0999	99,0101
1454,0641	99,1553
1455,0283	99,2776
1455,9926	99,3965
1456,9568	99,5474
1457,9210	99,7295
1458,8853	99,892
1459,8495	100,009
1460,8137	100,088
1461,7780	100,145
1462,7422	100,192
1463,7064	100,234
1464,6707	100,273
1465,6349	100,307
1466,5991	100,331
1467,5634	100,343
1468,5276	100,344
1469,4918	100,334
1470,4561	100,312
1471,4203	100,276
1472,3845	100,233
1473,3488	100,199
1474,3130	100,186
1475,2772	100,185
1476,2415	100,186
1477,2057	100,185
1478,1699	100,184
1479,1342	100,185
1480,0984	100,188
1481,0626	100,194
1482,0269	100,199
1482,9911	100,201
1483,9553	100,197
1484,9196	100,184
1485,8838	100,161
1486,8480	100,126
1487,8123	100,083
1488,7765	100,045
1489,7407	100,029
1490,7050	100,034
1491,6692	100,048
1492,6334	100,059
1493,5977	100,066
